wavelength,relativeIntensity
 380,1.62
 385,2.06
 390,2.71
 395,3.11
 400,3.67
 405,74.6
 410,8.88
 415,4.77
 420,4.72
 425,4.72
 430,4.94
 435,150.29
 440,6.08
 445,7.13
 450,9.1
 455,11.76
 460,14.96
 465,18.54
 470,22.48
 475,26.76
 480,31.66
 485,40.93
 490,45.83
 495,46
 500,45.26
 505,43.16
 510,41.63
 515,39.75
 520,37.83
 525,36.16
 530,35.25
 535,37.04
 540,59.86
 545,183.53
 550,59.03
 555,47.93
 560,48.67
 565,52.69
 570,57.24
 575,77.75
 580,87.81
 585,80.55
 590,84.83
 595,86.84
 600,91.44
 605,96.51
 610,105.25
 615,106.74
 620,108.53
 625,106.92
 630,101.54
 635,95.2
 640,89.34
 645,82.95
 650,75.78
 655,68.65
 660,61.7
 665,55.23
 670,48.58
 675,42.9
 680,37.74
 685,32.93
 690,29.65
 695,25.19
 700,21.69
 705,19.28
 710,17.36
 715,14.74
 720,12.86
 725,11.28
 730,9.97
 735,8.88
 740,7.78
 745,7.04
 750,6.3
 755,5.55
 760,10.15
 765,4.5
 770,4.81
 775,3.72
 780,3.28
